# Please cite arXiv:2005.07200
# The chisq between visible neutrino decay with the given parameters and the IceCube data assuming an initial flavor ratio (1:2:0) for various couplings (all six couplings equal) and initial spectral indices
# m_1 is taken to be zero
# The first row is the parameters:
#   z
# The next two rows define the grid:
#   Couplings
#   gamma
# The remaining rows are the chisq test statistic where the first row is for the smallest coupling and of increasing values of gamma and the second row is of increasing value of the coupling and so on
1
1e-09 1.09648e-09 1.20226e-09 1.31826e-09 1.44544e-09 1.58489e-09 1.7378e-09 1.90546e-09 2.0893e-09 2.29087e-09 2.51189e-09 2.75423e-09 3.01995e-09 3.31131e-09 3.63078e-09 3.98107e-09 4.36516e-09 4.7863e-09 5.24807e-09 5.7544e-09 6.30957e-09 6.91831e-09 7.58578e-09 8.31764e-09 9.12011e-09 1e-08 1.09648e-08 1.20226e-08 1.31826e-08 1.44544e-08 1.58489e-08 1.7378e-08 1.90546e-08 2.0893e-08 2.29087e-08 2.51189e-08 2.75423e-08 3.01995e-08 3.31131e-08 3.63078e-08 3.98107e-08 4.36516e-08 4.7863e-08 5.24807e-08 5.7544e-08 6.30957e-08 6.91831e-08 7.58578e-08 8.31764e-08 9.12011e-08 1e-07 1.09648e-07 1.20226e-07 1.31826e-07 1.44544e-07 1.58489e-07 1.7378e-07 1.90546e-07 2.0893e-07 2.29087e-07 2.51189e-07 2.75423e-07 3.01995e-07 3.31131e-07 3.63078e-07 3.98107e-07 4.36516e-07 4.7863e-07 5.24807e-07 5.7544e-07 6.30957e-07 6.91831e-07 7.58578e-07 8.31764e-07 9.12011e-07 1e-06 1.09648e-06 1.20226e-06 1.31826e-06 1.44544e-06 1.58489e-06 1.7378e-06 1.90546e-06 2.0893e-06 2.29087e-06 2.51189e-06 2.75423e-06 3.01995e-06 3.31131e-06 3.63078e-06 3.98107e-06 4.36516e-06 4.7863e-06 5.24807e-06 5.7544e-06 6.30957e-06 6.91831e-06 7.58578e-06 8.31764e-06 9.12011e-06 1e-05 
2 2.015 2.03 2.045 2.06 2.075 2.09 2.105 2.12 2.135 2.15 2.165 2.18 2.195 2.21 2.225 2.24 2.255 2.27 2.285 2.3 2.315 2.33 2.345 2.36 2.375 2.39 2.405 2.42 2.435 2.45 2.465 2.48 2.495 2.51 2.525 2.54 2.555 2.57 2.585 2.6 2.615 2.63 2.645 2.66 2.675 2.69 2.705 2.72 2.735 2.75 2.765 2.78 2.795 2.81 2.825 2.84 2.855 2.87 2.885 2.9 2.915 2.93 2.945 2.96 2.975 2.99 3.005 3.02 3.035 3.05 3.065 3.08 3.095 3.11 3.125 3.14 3.155 3.17 3.185 3.2 3.215 3.23 3.245 3.26 3.275 3.29 3.305 3.32 3.335 3.35 3.365 3.38 3.395 3.41 3.425 3.44 3.455 3.47 3.485 3.5 
79.4611 75.4933 71.6438 67.9129 64.3004 60.8064 57.4308 54.1737 51.035 48.0148 45.1131 42.3299 39.6651 37.1187 34.6908 32.3814 30.1905 28.118 26.164 24.3284 22.6113 21.0127 19.5325 18.1708 16.9275 15.8027 14.7964 13.9085 13.1391 12.4882 11.9557 11.5417 11.2461 11.0691 11.0104 11.0703 11.2486 11.5453 11.9605 12.4942 13.1464 13.917 14.8061 15.8136 16.9396 18.1841 19.547 21.0284 22.6282 24.3466 26.1833 28.1386 30.2123 32.4044 34.7151 37.1442 39.6917 42.3577 45.1422 48.0452 51.0666 54.2065 57.4648 60.8416 64.3368 67.9506 71.6828 75.5334 79.5025 83.5901 87.7961 92.1206 96.5636 101.125 105.805 110.603 115.52 120.555 125.709 130.981 136.372 141.881 147.509 153.255 159.119 165.102 171.204 177.424 183.762 190.219 196.794 203.488 210.3 217.231 224.28 231.448 238.734 246.138 253.661 261.303 269.063 
79.4636 75.4956 71.6461 67.9151 64.3025 60.8084 57.4327 54.1755 51.0368 48.0165 45.1147 42.3313 39.6665 37.12 34.6921 32.3826 30.1915 28.1189 26.1648 24.3292 22.612 21.0132 19.533 18.1711 16.9278 15.8029 14.7965 13.9085 13.139 12.488 11.9554 11.5413 11.2457 11.0685 11.0098 11.0695 11.2477 11.5444 11.9595 12.4931 13.1451 13.9156 14.8046 15.812 16.9379 18.1823 19.5451 21.0264 22.6262 24.3444 26.1811 28.1362 30.2098 32.4019 34.7124 37.1414 39.6888 42.3548 45.1391 48.042 51.0633 54.2031 57.4613 60.838 64.3331 67.9468 71.6788 75.5294 79.4984 83.5859 87.7918 92.1162 96.5591 101.12 105.8 110.598 115.515 120.55 125.704 130.976 136.367 141.876 147.503 153.249 159.114 165.096 171.198 177.418 183.756 190.213 196.788 203.481 210.294 217.224 224.273 231.441 238.727 246.131 253.654 261.295 269.055 
79.4666 75.4985 71.6489 67.9177 64.305 60.8108 57.435 54.1777 51.0389 48.0185 45.1166 42.3331 39.6681 37.1216 34.6935 32.3839 30.1928 28.1201 26.1658 24.3301 22.6128 21.0139 19.5335 18.1716 16.9281 15.8031 14.7966 13.9085 13.1389 12.4878 11.9551 11.5408 11.2451 11.0678 11.0089 11.0686 11.2466 11.5432 11.9582 12.4917 13.1436 13.914 14.8028 15.8102 16.9359 18.1802 19.5429 21.0241 22.6237 24.3418 26.1783 28.1334 30.2068 32.3988 34.7092 37.1381 39.6854 42.3512 45.1354 48.0382 51.0593 54.199 57.4571 60.8337 64.3287 67.9422 71.6741 75.5246 79.4934 83.5808 87.7866 92.1109 96.5536 101.115 105.794 110.593 115.509 120.544 125.698 130.97 136.36 141.869 147.496 153.242 159.107 165.089 171.191 177.41 183.748 190.205 196.78 203.474 210.286 217.216 224.265 231.432 238.718 246.122 253.645 261.286 269.046 
79.4701 75.5019 71.6522 67.9209 64.3081 60.8137 57.4378 54.1804 51.0414 48.0209 45.1189 42.3353 39.6702 37.1235 34.6953 32.3855 30.1942 28.1214 26.1671 24.3312 22.6137 21.0147 19.5342 18.1722 16.9286 15.8034 14.7967 13.9085 13.1388 12.4875 11.9547 11.5403 11.2444 11.0669 11.008 11.0674 11.2454 11.5418 11.9567 12.49 13.1418 13.912 14.8007 15.8079 16.9335 18.1776 19.5402 21.0212 22.6207 24.3387 26.1751 28.1299 30.2033 32.3951 34.7053 37.1341 39.6812 42.3469 45.131 48.0336 51.0546 54.1941 57.452 60.8285 64.3233 67.9367 71.6685 75.5188 79.4875 83.5747 87.7804 92.1045 96.5471 101.108 105.788 110.586 115.502 120.537 125.69 130.962 136.352 141.861 147.488 153.234 159.098 165.081 171.182 177.401 183.739 190.196 196.771 203.464 210.276 217.206 224.255 231.422 238.708 246.112 253.635 261.276 269.035 
79.4744 75.506 71.6562 67.9247 64.3118 60.8173 57.4412 54.1836 51.0445 48.0238 45.1216 42.3379 39.6726 37.1258 34.6974 32.3875 30.196 28.1231 26.1685 24.3325 22.6149 21.0157 19.535 18.1728 16.9291 15.8038 14.7969 13.9085 13.1386 12.4872 11.9542 11.5396 11.2436 11.0659 11.0068 11.0661 11.2439 11.5401 11.9548 12.488 13.1396 13.9097 14.7982 15.8052 16.9307 18.1746 19.537 21.0178 22.6171 24.3349 26.1711 28.1258 30.199 32.3906 34.7007 37.1292 39.6762 42.3417 45.1256 48.028 51.0489 54.1882 57.446 60.8222 64.3169 67.9301 71.6617 75.5118 79.4803 83.5674 87.7728 92.0968 96.5392 101.1 105.779 110.577 115.493 120.528 125.681 130.953 136.343 141.852 147.479 153.224 159.088 165.07 171.171 177.391 183.728 190.185 196.759 203.453 210.264 217.194 224.243 231.41 238.696 246.1 253.622 261.263 269.022 
79.4795 75.511 71.6609 67.9293 64.3162 60.8215 57.4453 54.1875 51.0482 48.0273 45.1249 42.341 39.6755 37.1285 34.6999 32.3898 30.1982 28.125 26.1703 24.334 22.6162 21.0169 19.536 18.1736 16.9297 15.8042 14.7971 13.9085 13.1384 12.4868 11.9536 11.5388 11.2426 11.0647 11.0054 11.0645 11.2421 11.5381 11.9526 12.4855 13.1369 13.9068 14.7951 15.8019 16.9272 18.1709 19.5331 21.0137 22.6128 24.3304 26.1664 28.1209 30.1938 32.3852 34.6951 37.1234 39.6702 42.3355 45.1192 48.0214 51.042 54.1811 57.4387 60.8147 64.3092 67.9221 71.6535 75.5034 79.4717 83.5585 87.7638 92.0875 96.5297 101.09 105.769 110.567 115.483 120.518 125.67 130.942 136.332 141.84 147.467 153.212 159.076 165.058 171.159 177.378 183.715 190.172 196.746 203.439 210.25 217.18 224.229 231.395 238.681 246.084 253.607 261.247 269.006 
79.4857 75.517 71.6667 67.9348 64.3215 60.8266 57.4501 54.1921 51.0526 48.0315 45.1289 42.3447 39.679 37.1318 34.703 32.3927 30.2008 28.1274 26.1724 24.3359 22.6179 21.0183 19.5372 18.1746 16.9304 15.8046 14.7974 13.9085 13.1382 12.4863 11.9528 11.5379 11.2413 11.0633 11.0037 11.0625 11.2399 11.5357 11.9499 12.4826 13.1338 13.9034 14.7915 15.798 16.923 18.1665 19.5284 21.0088 22.6076 24.3249 26.1607 28.1149 30.1876 32.3788 34.6884 37.1165 39.663 42.328 45.1115 48.0134 51.0338 54.1726 57.4299 60.8057 64.2999 67.9126 71.6437 75.4933 79.4614 83.5479 87.7529 92.0764 96.5183 101.079 105.758 110.555 115.471 120.505 125.658 130.929 136.318 141.826 147.453 153.198 159.061 165.043 171.144 177.363 183.7 190.156 196.73 203.423 210.234 217.163 224.211 231.378 238.663 246.066 253.588 261.229 268.988 
79.4931 75.5241 71.6736 67.9415 64.3279 60.8327 57.456 54.1977 51.0579 48.0365 45.1337 42.3492 39.6832 37.1357 34.7067 32.3961 30.2039 28.1302 26.175 24.3382 22.6199 21.0201 19.5387 18.1757 16.9312 15.8052 14.7976 13.9085 13.1379 12.4857 11.952 11.5367 11.2399 11.0615 11.0017 11.0602 11.2372 11.5327 11.9467 12.4791 13.1299 13.8993 14.7871 15.7933 16.918 18.1612 19.5228 21.0029 22.6014 24.3184 26.1539 28.1078 30.1802 32.371 34.6803 37.1081 39.6543 42.319 45.1022 48.0038 51.0238 54.1624 57.4194 60.7948 64.2887 67.9011 71.6319 75.4812 79.449 83.5352 87.7399 92.063 96.5046 101.065 105.743 110.54 115.456 120.49 125.642 130.913 136.302 141.81 147.436 153.181 159.044 165.025 171.125 177.344 183.681 190.136 196.71 203.403 210.214 217.143 224.191 231.357 238.642 246.045 253.566 261.206 268.965 
79.502 75.5327 71.6819 67.9495 64.3355 60.84 57.463 54.2044 51.0643 48.0426 45.1394 42.3546 39.6883 37.1405 34.7111 32.4002 30.2077 28.1336 26.1781 24.341 22.6223 21.0221 19.5404 18.1771 16.9323 15.8059 14.798 13.9085 13.1376 12.485 11.9509 11.5353 11.2382 11.0595 10.9992 11.0574 11.2341 11.5292 11.9428 12.4749 13.1254 13.8943 14.7817 15.7876 16.912 18.1548 19.516 20.9957 22.5939 24.3106 26.1457 28.0992 30.1712 32.3617 34.6706 37.098 39.6439 42.3082 45.091 47.9922 51.0119 54.1501 57.4067 60.7818 64.2753 67.8873 71.6178 75.4667 79.4341 83.5199 87.7242 92.0469 96.4882 101.048 105.726 110.523 115.438 120.471 125.623 130.894 136.283 141.79 147.416 153.16 159.023 165.004 171.104 177.322 183.658 190.113 196.687 203.379 210.189 217.118 224.166 231.331 238.616 246.019 253.54 261.179 268.938 
79.5128 75.5431 71.6918 67.9591 64.3447 60.8489 57.4714 54.2125 51.072 48.0499 45.1463 42.3611 39.6944 37.1462 34.7164 32.4051 30.2122 28.1378 26.1818 24.3443 22.6252 21.0246 19.5425 18.1788 16.9335 15.8068 14.7984 13.9086 13.1371 12.4842 11.9497 11.5337 11.2361 11.0569 10.9963 11.0541 11.2303 11.525 11.9382 12.4698 13.1199 13.8884 14.7754 15.7808 16.9047 18.1471 19.5079 20.9872 22.5849 24.3011 26.1358 28.0889 30.1605 32.3505 34.659 37.086 39.6314 42.2952 45.0776 47.9783 50.9976 54.1353 57.3915 60.7661 64.2592 67.8707 71.6007 75.4492 79.4161 83.5015 87.7053 92.0276 96.4684 101.028 105.705 110.501 115.416 120.449 125.601 130.871 136.259 141.766 147.391 153.135 158.997 164.978 171.077 177.295 183.631 190.086 196.659 203.35 210.16 217.089 224.136 231.301 238.585 245.987 253.508 261.147 268.905 
79.5257 75.5555 71.7038 67.9706 64.3558 60.8595 57.4816 54.2222 51.0812 48.0586 45.1546 42.3689 39.7018 37.1531 34.7228 32.411 30.2176 28.1427 26.1862 24.3482 22.6287 21.0276 19.545 18.1808 16.935 15.8078 14.7989 13.9086 13.1367 12.4832 11.9482 11.5316 11.2336 11.0539 10.9927 11.05 11.2257 11.5199 11.9326 12.4637 13.1132 13.8812 14.7677 15.7726 16.896 18.1379 19.4982 20.9769 22.5741 24.2898 26.1239 28.0765 30.1476 32.3371 34.645 37.0714 39.6163 42.2796 45.0614 47.9617 50.9804 54.1175 57.3732 60.7472 64.2398 67.8508 71.5802 75.4282 79.3945 83.4794 87.6827 92.0044 96.4446 101.003 105.68 110.476 115.39 120.423 125.574 130.843 136.231 141.737 147.362 153.105 158.967 164.947 171.046 177.263 183.599 190.053 196.625 203.316 210.125 217.053 224.1 231.264 238.548 245.949 253.47 261.108 268.865 
79.5411 75.5705 71.7182 67.9845 64.3691 60.8722 57.4938 54.2338 51.0923 48.0692 45.1645 42.3783 39.7106 37.1613 34.7305 32.4181 30.2241 28.1486 26.1916 24.353 22.6329 21.0312 19.548 18.1832 16.9369 15.809 14.7996 13.9086 13.1361 12.482 11.9464 11.5292 11.2305 11.0503 10.9885 11.0452 11.2203 11.5138 11.9259 12.4563 13.1053 13.8727 14.7585 15.7628 16.8856 18.1268 19.4864 20.9646 22.5611 24.2762 26.1097 28.0616 30.132 32.3209 34.6282 37.054 39.5982 42.2609 45.042 47.9416 50.9597 54.0962 57.3512 60.7246 64.2165 67.8268 71.5556 75.4029 79.3686 83.4528 87.6554 91.9765 96.4161 100.974 105.651 110.445 115.359 120.391 125.541 130.81 136.197 141.703 147.327 153.069 158.93 164.91 171.008 177.224 183.559 190.013 196.584 203.275 210.083 217.011 224.056 231.22 238.503 245.904 253.424 261.061 268.818 
79.5598 75.5884 71.7356 68.0011 64.3851 60.8876 57.5085 54.2478 51.1056 48.0818 45.1765 42.3896 39.7212 37.1712 34.7397 32.4266 30.232 28.1558 26.198 24.3587 22.6379 21.0355 19.5516 18.1861 16.939 15.8104 14.8003 13.9086 13.1354 12.4806 11.9442 11.5264 11.2269 11.0459 10.9834 11.0393 11.2137 11.5065 11.9178 12.4475 13.0957 13.8624 14.7475 15.751 16.873 18.1135 19.4724 20.9497 22.5455 24.2598 26.0925 28.0437 30.1134 32.3014 34.608 37.033 39.5764 42.2384 45.0187 47.9175 50.9348 54.0706 57.3248 60.6974 64.1885 67.7981 71.5261 75.3725 79.3375 83.4209 87.6227 91.943 96.3818 100.939 105.615 110.409 115.321 120.352 125.502 130.77 136.156 141.661 147.284 153.026 158.887 164.865 170.962 177.178 183.512 189.965 196.536 203.225 210.033 216.959 224.004 231.168 238.449 245.85 253.368 261.005 268.761 
79.5821 75.61 71.7564 68.0211 64.4043 60.906 57.5261 54.2646 51.1216 48.097 45.1909 42.4032 39.7339 37.1831 34.7508 32.4369 30.2414 28.1644 26.2058 24.3656 22.644 21.0407 19.5559 18.1896 16.9417 15.8122 14.8012 13.9086 13.1345 12.4789 11.9417 11.5229 11.2226 11.0407 10.9773 11.0323 11.2058 11.4978 11.9081 12.437 13.0843 13.85 14.7342 15.7368 16.8579 18.0975 19.4555 20.9319 22.5268 24.2402 26.072 28.0222 30.0909 32.2781 34.5837 37.0078 39.5503 42.2113 44.9907 47.8886 50.905 54.0398 57.293 60.6647 64.1549 67.7635 71.4906 75.3361 79.3001 83.3825 87.5834 91.9027 96.3405 100.897 105.572 110.365 115.276 120.306 125.455 130.722 136.107 141.611 147.234 152.974 158.834 164.812 170.908 177.122 183.455 189.907 196.477 203.166 209.972 216.898 223.942 231.104 238.385 245.784 253.302 260.938 268.692 
79.609 75.636 71.7814 68.0452 64.4275 60.9281 57.5473 54.2848 51.1409 48.1153 45.2082 42.4195 39.7493 37.1975 34.7641 32.4492 30.2527 28.1747 26.2151 24.3739 22.6512 21.047 19.5611 18.1938 16.9448 15.8143 14.8023 13.9087 13.1335 12.4768 11.9386 11.5187 11.2174 11.0344 10.97 11.0239 11.1964 11.4872 11.8965 12.4243 13.0705 13.8351 14.7182 15.7198 16.8398 18.0783 19.4352 20.9105 22.5043 24.2166 26.0473 27.9964 30.064 32.2501 34.5546 36.9775 39.5189 42.1788 44.9571 47.8539 50.8691 54.0028 57.2549 60.6255 64.1145 67.722 71.4479 75.2923 79.2551 83.3364 87.5362 91.8544 96.291 100.846 105.52 110.312 115.222 120.251 125.399 130.664 136.049 141.551 147.173 152.912 158.77 164.747 170.842 177.055 183.387 189.838 196.407 203.094 209.9 216.824 223.867 231.028 238.307 245.705 253.222 260.857 268.61 
79.6414 75.6672 71.8114 68.0741 64.4552 60.9548 57.5727 54.3091 51.164 48.1373 45.229 42.4391 39.7677 37.2147 34.7801 32.464 30.2663 28.1871 26.2263 24.3839 22.66 21.0545 19.5674 18.1988 16.9486 15.8169 14.8036 13.9088 13.1324 12.4744 11.9349 11.5138 11.2111 11.0269 10.9612 11.0139 11.185 11.4746 11.8826 12.409 13.054 13.8173 14.6991 15.6994 16.8181 18.0552 19.4108 20.8848 22.4773 24.1882 26.0176 27.9654 30.0317 32.2164 34.5196 36.9412 39.4813 42.1398 44.9167 47.8122 50.826 53.9583 57.2091 60.5783 64.066 67.6721 71.3967 75.2397 79.2012 83.2811 87.4795 91.7963 96.2316 100.785 105.457 110.248 115.157 120.185 125.331 130.595 135.978 141.479 147.099 152.838 158.694 164.669 170.763 176.975 183.306 189.755 196.322 203.008 209.812 216.735 223.776 230.936 238.214 245.611 253.126 260.76 268.512 
79.6802 75.7046 71.8475 68.1088 64.4886 60.9867 57.6033 54.3383 51.1918 48.1636 45.2539 42.4627 39.7898 37.2354 34.7994 32.4818 30.2827 28.202 26.2397 24.3959 22.6705 21.0635 19.575 18.2049 16.9532 15.82 14.8052 13.9089 13.1309 12.4715 11.9304 11.5078 11.2036 11.0179 10.9506 11.0018 11.1714 11.4594 11.8659 12.3908 13.0341 13.7959 14.6761 15.6748 16.7919 18.0275 19.3815 20.854 22.4449 24.1542 25.982 27.9282 29.9929 32.176 34.4776 36.8976 39.436 42.0929 44.8683 47.7621 50.7743 53.905 57.1541 60.5217 64.0077 67.6122 71.3352 75.1765 79.1364 83.2146 87.4114 91.7265 96.1602 100.712 105.383 110.172 115.079 120.105 125.249 130.512 135.893 141.393 147.011 152.748 158.603 164.576 170.668 176.879 183.207 189.655 196.22 202.905 209.707 216.628 223.668 230.826 238.103 245.497 253.011 260.643 268.393 
79.7268 75.7496 71.8909 68.1506 64.5287 61.0252 57.6401 54.3734 51.2252 48.1954 45.2839 42.491 39.8164 37.2603 34.8225 32.5033 30.3024 28.2199 26.2559 24.4103 22.6832 21.0744 19.5841 18.2122 16.9588 15.8238 14.8072 13.909 13.1293 12.468 11.9251 11.5007 11.1947 11.0071 10.938 10.9873 11.155 11.4412 11.8458 12.3688 13.0103 13.7702 14.6486 15.6454 16.7606 17.9943 19.3464 20.8169 22.4059 24.1134 25.9392 27.8835 29.9463 32.1275 34.4271 36.8452 39.3817 42.0367 44.8101 47.7019 50.7122 53.841 57.0881 60.4538 63.9378 67.5403 71.2613 75.1007 79.0586 83.1349 87.3296 91.6428 96.0744 100.625 105.293 110.08 114.985 120.009 125.152 130.412 135.792 141.289 146.905 152.64 158.493 164.464 170.554 176.763 183.09 189.535 196.099 202.781 209.581 216.5 223.538 230.694 237.968 245.361 252.873 260.502 268.251 
79.7828 75.8037 71.943 68.2007 64.5768 61.0713 57.6842 54.4156 51.2653 48.2334 45.32 42.525 39.8484 37.2902 34.8504 32.529 30.326 28.2415 26.2754 24.4277 22.6984 21.0875 19.5951 18.2211 16.9655 15.8283 14.8095 13.9092 13.1273 12.4638 11.9188 11.4921 11.1839 10.9942 10.9228 10.9699 11.1354 11.4194 11.8217 12.3425 12.9818 13.7395 14.6155 15.6101 16.723 17.9544 19.3043 20.7725 22.3592 24.0644 25.888 27.83 29.8904 32.0693 34.3666 36.7824 39.3166 41.9692 44.7403 47.6298 50.6377 53.7641 57.009 60.3722 63.8539 67.4541 71.1727 75.0097 78.9652 83.0391 87.2315 91.5423 95.9716 100.519 105.185 109.97 114.873 119.894 125.034 130.293 135.67 141.165 146.779 152.511 158.361 164.33 170.418 176.624 182.948 189.391 195.952 202.632 209.43 216.347 223.382 230.535 237.807 245.198 252.707 260.334 268.08 
79.85 75.8686 72.0055 68.2609 64.6346 61.1267 57.7372 54.4662 51.3135 48.2792 45.3633 42.5658 39.8867 37.3261 34.8838 32.5599 30.3545 28.2674 26.2988 24.4485 22.7167 21.1033 19.6083 18.2317 16.9735 15.8338 14.8124 13.9095 13.125 12.4589 11.9112 11.482 11.1711 10.9787 10.9047 10.9491 11.112 11.3932 11.7929 12.311 12.9476 13.7026 14.5759 15.5678 16.678 17.9067 19.2538 20.7193 22.3033 24.0056 25.8265 27.7657 29.8234 31.9995 34.294 36.707 39.2384 41.8883 44.6565 47.5432 50.5484 53.672 56.914 60.2744 63.7533 67.3506 71.0664 74.9006 78.8532 82.9243 87.1138 91.4218 95.8482 100.393 105.056 109.838 114.738 119.757 124.894 130.149 135.523 141.015 146.626 152.356 158.203 164.169 170.254 176.457 182.778 189.218 195.777 202.453 209.249 216.162 223.194 230.345 237.614 245.002 252.507 260.132 267.875 
79.9308 75.9465 72.0806 68.3331 64.704 61.1933 57.8009 54.5269 51.3713 48.3341 45.4153 42.6149 39.9329 37.3692 34.924 32.5971 30.3886 28.2986 26.3269 24.4736 22.7388 21.1223 19.6242 18.2446 16.9833 15.8404 14.816 13.9099 13.1223 12.453 11.9022 11.4698 11.1558 10.9602 10.883 10.9243 11.0839 11.362 11.7584 12.2733 12.9066 13.6584 14.5285 15.5171 16.624 17.8494 19.1933 20.6555 22.2362 23.9353 25.7528 27.6887 29.7431 31.9159 34.2071 36.6167 39.1448 41.7912 44.5562 47.4395 50.4413 53.5615 56.8001 60.1572 63.6327 67.2266 70.939 74.7697 78.719 82.7866 86.9727 91.2772 95.7002 100.242 104.901 109.68 114.576 119.591 124.725 129.977 135.348 140.836 146.444 152.169 158.014 163.976 170.057 176.257 182.575 189.011 195.566 202.239 209.031 215.941 222.97 230.117 237.382 244.766 252.269 259.889 267.629 
80.0276 76.04 72.1708 68.4198 64.7873 61.2731 57.8773 54.5999 51.4408 48.4001 45.4778 42.6738 39.9882 37.421 34.9722 32.6418 30.4297 28.336 26.3607 24.5038 22.7653 21.1452 19.6434 18.26 16.9951 15.8485 14.8203 13.9105 13.1191 12.4461 11.8915 11.4553 11.1375 10.9381 10.8571 10.8945 11.0503 11.3246 11.7172 12.2282 12.8576 13.6055 14.4717 15.4564 16.5594 17.7809 19.1208 20.5791 22.1558 23.851 25.6645 27.5965 29.6469 31.8156 34.1029 36.5085 39.0325 41.675 44.4359 47.3152 50.3129 53.4291 56.6637 60.0167 63.4881 67.078 70.7862 74.6129 78.5581 82.6216 86.8036 91.104 95.5228 100.06 104.716 109.49 114.382 119.393 124.523 129.771 135.137 140.622 146.225 151.946 157.786 163.745 169.822 176.017 182.331 188.763 195.314 201.983 208.77 215.676 222.701 229.843 237.105 244.484 251.982 259.599 267.334 
