# Please cite arXiv:2005.07200
# The chisq between invisible neutrino decay with the given parameters and the IceCube data assuming an initial flavor ratio (1:2:0) for various couplings (all six couplings equal) and initial spectral indices
# m_1 is taken to be zero
# The first row is the parameters:
#   z
# The next two rows define the grid:
#   Couplings
#   gamma
# The remaining rows are the chisq test statistic where the first row is for the smallest coupling and of increasing values of gamma and the second row is of increasing value of the coupling and so on
1
1e-09 1.09648e-09 1.20226e-09 1.31826e-09 1.44544e-09 1.58489e-09 1.7378e-09 1.90546e-09 2.0893e-09 2.29087e-09 2.51189e-09 2.75423e-09 3.01995e-09 3.31131e-09 3.63078e-09 3.98107e-09 4.36516e-09 4.7863e-09 5.24807e-09 5.7544e-09 6.30957e-09 6.91831e-09 7.58578e-09 8.31764e-09 9.12011e-09 1e-08 1.09648e-08 1.20226e-08 1.31826e-08 1.44544e-08 1.58489e-08 1.7378e-08 1.90546e-08 2.0893e-08 2.29087e-08 2.51189e-08 2.75423e-08 3.01995e-08 3.31131e-08 3.63078e-08 3.98107e-08 4.36516e-08 4.7863e-08 5.24807e-08 5.7544e-08 6.30957e-08 6.91831e-08 7.58578e-08 8.31764e-08 9.12011e-08 1e-07 1.09648e-07 1.20226e-07 1.31826e-07 1.44544e-07 1.58489e-07 1.7378e-07 1.90546e-07 2.0893e-07 2.29087e-07 2.51189e-07 2.75423e-07 3.01995e-07 3.31131e-07 3.63078e-07 3.98107e-07 4.36516e-07 4.7863e-07 5.24807e-07 5.7544e-07 6.30957e-07 6.91831e-07 7.58578e-07 8.31764e-07 9.12011e-07 1e-06 1.09648e-06 1.20226e-06 1.31826e-06 1.44544e-06 1.58489e-06 1.7378e-06 1.90546e-06 2.0893e-06 2.29087e-06 2.51189e-06 2.75423e-06 3.01995e-06 3.31131e-06 3.63078e-06 3.98107e-06 4.36516e-06 4.7863e-06 5.24807e-06 5.7544e-06 6.30957e-06 6.91831e-06 7.58578e-06 8.31764e-06 9.12011e-06 1e-05 
2 2.015 2.03 2.045 2.06 2.075 2.09 2.105 2.12 2.135 2.15 2.165 2.18 2.195 2.21 2.225 2.24 2.255 2.27 2.285 2.3 2.315 2.33 2.345 2.36 2.375 2.39 2.405 2.42 2.435 2.45 2.465 2.48 2.495 2.51 2.525 2.54 2.555 2.57 2.585 2.6 2.615 2.63 2.645 2.66 2.675 2.69 2.705 2.72 2.735 2.75 2.765 2.78 2.795 2.81 2.825 2.84 2.855 2.87 2.885 2.9 2.915 2.93 2.945 2.96 2.975 2.99 3.005 3.02 3.035 3.05 3.065 3.08 3.095 3.11 3.125 3.14 3.155 3.17 3.185 3.2 3.215 3.23 3.245 3.26 3.275 3.29 3.305 3.32 3.335 3.35 3.365 3.38 3.395 3.41 3.425 3.44 3.455 3.47 3.485 3.5 
79.4655 75.4975 71.6479 67.9168 64.3042 60.81 57.4343 54.177 51.0382 48.0179 45.1161 42.3327 39.6677 37.1213 34.6933 32.3837 30.1927 28.1201 26.1659 24.3302 22.613 21.0143 19.534 18.1721 16.9288 15.8039 14.7975 13.9095 13.14 12.4889 11.9564 11.5423 11.2466 11.0694 11.0107 11.0704 11.2486 11.5453 11.9604 12.494 13.1461 13.9166 14.8056 15.8131 16.939 18.1834 19.5462 21.0275 22.6273 24.3455 26.1822 28.1374 30.211 32.4031 34.7137 37.1427 39.6902 42.3562 45.1406 48.0434 51.0648 54.2046 57.4629 60.8396 64.3348 67.9484 71.6806 75.5312 79.5002 83.5877 87.7937 92.1182 96.5611 101.122 105.802 110.601 115.517 120.553 125.706 130.978 136.369 141.878 147.506 153.252 159.116 165.099 171.201 177.42 183.759 190.215 196.791 203.484 210.297 217.227 224.276 231.444 238.73 246.135 253.658 261.299 269.059 
79.4688 75.5007 71.651 67.9198 64.307 60.8127 57.4369 54.1796 51.0407 48.0202 45.1182 42.3347 39.6697 37.1231 34.695 32.3853 30.1941 28.1214 26.1672 24.3314 22.614 21.0152 19.5348 18.1728 16.9293 15.8043 14.7978 13.9097 13.1401 12.4889 11.9562 11.542 11.2462 11.0689 11.0101 11.0697 11.2478 11.5443 11.9594 12.4928 13.1448 13.9152 14.8041 15.8114 16.9372 18.1815 19.5442 21.0254 22.6251 24.3432 26.1798 28.1348 30.2083 32.4003 34.7107 37.1396 39.687 42.3528 45.1371 48.0399 51.0611 54.2008 57.459 60.8356 64.3307 67.9442 71.6762 75.5267 79.4956 83.583 87.7889 92.1132 96.556 101.117 105.797 110.595 115.512 120.547 125.701 130.973 136.363 141.872 147.499 153.245 159.11 165.093 171.194 177.414 183.752 190.208 196.784 203.477 210.289 217.22 224.269 231.436 238.722 246.127 253.649 261.291 269.051 
79.4729 75.5046 71.6548 67.9234 64.3105 60.8161 57.4401 54.1826 51.0435 48.023 45.1209 42.3372 39.672 37.1253 34.697 32.3873 30.1959 28.1231 26.1687 24.3327 22.6152 21.0162 19.5357 18.1736 16.93 15.8048 14.7981 13.9099 13.1402 12.4889 11.956 11.5417 11.2457 11.0683 11.0093 11.0688 11.2468 11.5432 11.9581 12.4914 13.1432 13.9135 14.8022 15.8094 16.9351 18.1792 19.5418 21.0228 22.6223 24.3403 26.1768 28.1317 30.2051 32.3969 34.7072 37.136 39.6832 42.3489 45.133 48.0357 51.0567 54.1963 57.4543 60.8308 64.3257 67.9391 71.671 75.5213 79.4901 83.5774 87.7831 92.1073 96.5499 101.111 105.791 110.589 115.505 120.54 125.694 130.965 136.356 141.865 147.492 153.238 159.102 165.085 171.186 177.405 183.743 190.2 196.775 203.468 210.28 217.211 224.26 231.427 238.713 246.117 253.64 261.281 269.041 
79.4777 75.5092 71.6592 67.9277 64.3147 60.8201 57.4439 54.1862 51.047 48.0263 45.124 42.3402 39.6748 37.1279 34.6995 32.3896 30.1981 28.125 26.1705 24.3343 22.6167 21.0175 19.5368 18.1746 16.9308 15.8055 14.7986 13.9102 13.1403 12.4888 11.9558 11.5413 11.2452 11.0676 11.0084 11.0677 11.2455 11.5418 11.9565 12.4897 13.1413 13.9114 14.8 15.807 16.9325 18.1764 19.5389 21.0197 22.6191 24.3369 26.1732 28.1279 30.2011 32.3928 34.7029 37.1315 39.6786 42.3441 45.1281 48.0305 51.0515 54.1908 57.4487 60.825 64.3198 67.933 71.6647 75.5149 79.4835 83.5706 87.7761 92.1002 96.5426 101.104 105.783 110.581 115.497 120.532 125.685 130.957 136.347 141.856 147.483 153.229 159.093 165.075 171.176 177.396 183.733 190.19 196.765 203.458 210.27 217.2 224.249 231.416 238.701 246.106 253.628 261.269 269.029 
79.4835 75.5148 71.6646 67.9329 64.3196 60.8248 57.4485 54.1906 51.0512 48.0303 45.1278 42.3438 39.6782 37.1311 34.7025 32.3923 30.2006 28.1274 26.1726 24.3363 22.6185 21.0191 19.5382 18.1757 16.9317 15.8062 14.7991 13.9105 13.1404 12.4887 11.9555 11.5408 11.2445 11.0667 11.0074 11.0665 11.244 11.5401 11.9546 12.4876 13.139 13.9089 14.7973 15.8041 16.9294 18.1731 19.5354 21.016 22.6152 24.3328 26.1689 28.1234 30.1964 32.3879 34.6978 37.1262 39.6731 42.3384 45.1222 48.0244 51.0451 54.1843 57.4419 60.818 64.3126 67.9256 71.6571 75.5071 79.4755 83.5624 87.7678 92.0916 96.5339 101.095 105.774 110.571 115.488 120.522 125.675 130.947 136.337 141.845 147.472 153.218 159.081 165.064 171.165 177.384 183.721 190.178 196.752 203.445 210.257 217.187 224.235 231.402 238.688 246.092 253.614 261.255 269.014 
79.4905 75.5216 71.6711 67.9392 64.3257 60.8306 57.454 54.1959 51.0563 48.0351 45.1323 42.3481 39.6823 37.1349 34.7061 32.3957 30.2037 28.1302 26.1752 24.3387 22.6206 21.021 19.5398 18.1771 16.9329 15.8071 14.7998 13.9109 13.1406 12.4887 11.9552 11.5402 11.2437 11.0657 11.0061 11.0649 11.2423 11.5381 11.9523 12.4851 13.1362 13.9059 14.794 15.8006 16.9256 18.1692 19.5311 21.0116 22.6105 24.3278 26.1637 28.118 30.1907 32.3819 34.6916 37.1198 39.6664 42.3315 45.115 48.017 51.0375 54.1764 57.4338 60.8097 64.304 67.9168 71.6481 75.4978 79.466 83.5526 87.7577 92.0813 96.5233 101.084 105.763 110.56 115.476 120.51 125.663 130.935 136.324 141.833 147.459 153.204 159.068 165.05 171.151 177.37 183.707 190.163 196.737 203.43 210.242 217.171 224.22 231.386 238.671 246.075 253.597 261.238 268.997 
79.4989 75.5297 71.679 67.9467 64.3329 60.8375 57.4607 54.2023 51.0623 48.0408 45.1378 42.3532 39.6872 37.1395 34.7104 32.3997 30.2074 28.1336 26.1783 24.3415 22.6231 21.0232 19.5417 18.1788 16.9342 15.8082 14.8006 13.9114 13.1408 12.4886 11.9548 11.5395 11.2427 11.0644 11.0045 11.0631 11.2401 11.5356 11.9496 12.482 13.1329 13.9023 14.7901 15.7964 16.9212 18.1644 19.5261 21.0062 22.6048 24.3219 26.1574 28.1114 30.1839 32.3748 34.6842 37.1121 39.6584 42.3232 45.1064 48.0082 51.0283 54.167 57.4241 60.7996 64.2937 67.9062 71.6371 75.4866 79.4545 83.5408 87.7456 92.0689 96.5106 101.071 105.75 110.547 115.462 120.496 125.649 130.92 136.309 141.817 147.444 153.188 159.052 165.034 171.134 177.352 183.69 190.145 196.719 203.412 210.223 217.152 224.2 231.367 238.652 246.055 253.577 261.217 268.976 
79.509 75.5394 71.6883 67.9557 64.3416 60.8459 57.4686 54.2099 51.0696 48.0477 45.1444 42.3595 39.693 37.145 34.7155 32.4045 30.2119 28.1378 26.1821 24.3449 22.6262 21.0259 19.5441 18.1808 16.9359 15.8095 14.8015 13.912 13.141 12.4885 11.9544 11.5387 11.2416 11.0629 11.0026 11.0609 11.2375 11.5327 11.9463 12.4784 13.129 13.898 14.7854 15.7914 16.9158 18.1586 19.52 20.9998 22.598 24.3147 26.1499 28.1036 30.1757 32.3663 34.6753 37.1028 39.6488 42.3132 45.0961 47.9975 51.0173 54.1556 57.4124 60.7876 64.2813 67.8934 71.624 75.4731 79.4406 83.5266 87.7311 92.054 96.4954 101.055 105.734 110.53 115.446 120.479 125.632 130.902 136.291 141.799 147.425 153.169 159.032 165.014 171.114 177.332 183.669 190.124 196.698 203.39 210.201 217.13 224.177 231.344 238.628 246.031 253.552 261.192 268.951 
79.5211 75.5511 71.6996 67.9666 64.352 60.8559 57.4782 54.219 51.0783 48.0561 45.1523 42.3669 39.7001 37.1517 34.7217 32.4103 30.2172 28.1427 26.1866 24.349 22.6298 21.0292 19.5469 18.1832 16.9379 15.811 14.8027 13.9127 13.1413 12.4883 11.9538 11.5378 11.2402 11.061 11.0004 11.0582 11.2345 11.5292 11.9424 12.474 13.1242 13.8928 14.7798 15.7853 16.9093 18.1517 19.5127 20.992 22.5899 24.3062 26.1409 28.0942 30.1658 32.356 34.6646 37.0917 39.6372 42.3013 45.0837 47.9847 51.0041 54.1419 57.3983 60.7731 64.2663 67.878 71.6082 75.4569 79.424 83.5096 87.7136 92.0361 96.4771 101.037 105.714 110.511 115.426 120.459 125.611 130.881 136.27 141.777 147.402 153.146 159.009 164.99 171.089 177.307 183.644 190.099 196.672 203.364 210.174 217.103 224.15 231.315 238.6 246.002 253.523 261.163 268.921 
79.5357 75.5652 71.7132 67.9796 64.3645 60.8679 57.4898 54.2301 51.0888 48.0661 45.1618 42.3759 39.7086 37.1596 34.7292 32.4172 30.2237 28.1486 26.192 24.3539 22.6343 21.0331 19.5503 18.1861 16.9402 15.8129 14.804 13.9136 13.1417 12.4882 11.9531 11.5366 11.2385 11.0589 10.9977 11.055 11.2307 11.525 11.9377 12.4688 13.1184 13.8865 14.773 15.7781 16.9015 18.1435 19.5039 20.9827 22.58 24.2958 26.1301 28.0828 30.154 32.3436 34.6518 37.0783 39.6234 42.2869 45.0688 47.9693 50.9882 54.1255 57.3813 60.7556 64.2484 67.8596 71.5893 75.4374 79.404 83.4891 87.6926 92.0146 96.4551 101.014 105.691 110.487 115.402 120.434 125.586 130.855 136.243 141.75 147.375 153.119 158.981 164.961 171.06 177.278 183.614 190.068 196.641 203.332 210.142 217.07 224.117 231.282 238.565 245.967 253.488 261.127 268.884 
79.5532 75.5821 71.7295 67.9953 64.3796 60.8824 57.5036 54.2433 51.1015 48.0781 45.1732 42.3867 39.7188 37.1692 34.7382 32.4256 30.2314 28.1558 26.1986 24.3598 22.6396 21.0378 19.5544 18.1895 16.9431 15.8152 14.8057 13.9146 13.1421 12.488 11.9523 11.5352 11.2365 11.0562 10.9944 11.0511 11.2263 11.5199 11.932 12.4625 13.1115 13.879 14.7649 15.7693 16.8922 18.1335 19.4933 20.9715 22.5683 24.2834 26.1171 28.0692 30.1398 32.3288 34.6363 37.0623 39.6067 42.2696 45.0509 47.9508 50.969 54.1058 57.361 60.7347 64.2268 67.8374 71.5665 75.414 79.38 83.4645 87.6674 91.9888 96.4286 100.987 105.664 110.459 115.373 120.405 125.555 130.825 136.212 141.718 147.343 153.086 158.947 164.927 171.025 177.242 183.577 190.031 196.603 203.294 210.103 217.031 224.077 231.241 238.524 245.926 253.446 261.084 268.841 
79.5743 75.6024 71.7491 68.0142 64.3978 60.8998 57.5203 54.2593 51.1167 48.0926 45.1869 42.3997 39.731 37.1808 34.749 32.4356 30.2408 28.1644 26.2064 24.367 22.646 21.0434 19.5593 18.1937 16.9466 15.8179 14.8076 13.9159 13.1426 12.4878 11.9514 11.5335 11.234 11.0531 10.9906 11.0465 11.2209 11.5138 11.9251 12.4549 13.1032 13.87 14.7552 15.7588 16.8809 18.1215 19.4806 20.9581 22.5541 24.2685 26.1014 28.0528 30.1227 32.311 34.6177 37.043 39.5866 42.2488 45.0294 47.9285 50.9461 54.0821 57.3366 60.7095 64.2009 67.8108 71.5391 75.3859 79.3512 83.4349 87.6371 91.9577 96.3969 100.954 105.63 110.425 115.338 120.369 125.519 130.788 136.174 141.68 147.304 153.046 158.906 164.886 170.983 177.199 183.534 189.987 196.558 203.248 210.057 216.983 224.029 231.193 238.475 245.876 253.395 261.032 268.788 
79.5996 75.6269 71.7726 68.0369 64.4196 60.9207 57.5403 54.2784 51.1349 48.1099 45.2034 42.4154 39.7457 37.1946 34.7619 32.4477 30.252 28.1747 26.2159 24.3755 22.6536 21.0502 19.5652 18.1987 16.9507 15.8211 14.81 13.9174 13.1432 12.4875 11.9502 11.5315 11.2311 11.0493 10.9859 11.041 11.2145 11.5065 11.9169 12.4459 13.0933 13.8591 14.7434 15.7462 16.8674 18.1072 19.4653 20.942 22.5371 24.2506 26.0827 28.0332 30.1021 32.2895 34.5954 37.0198 39.5626 42.2238 45.0036 47.9018 50.9185 54.0536 57.3072 60.6792 64.1698 67.7788 71.5062 75.3521 79.3165 83.3993 87.6007 91.9204 96.3587 100.915 105.591 110.384 115.296 120.327 125.476 130.743 136.129 141.634 147.257 152.998 158.858 164.836 170.933 177.148 183.482 189.934 196.504 203.193 210.001 216.927 223.971 231.134 238.415 245.815 253.334 260.97 268.726 
79.63 75.6563 71.801 68.0641 64.4457 60.9458 57.5644 54.3014 51.1569 48.1308 45.2233 42.4341 39.7635 37.2113 34.7775 32.4623 30.2655 28.1871 26.2272 24.3858 22.6629 21.0584 19.5724 18.2048 16.9557 15.8251 14.8129 13.9192 13.144 12.4872 11.9489 11.529 11.2277 11.0447 10.9803 11.0343 11.2068 11.4977 11.9071 12.435 13.0813 13.8461 14.7293 15.7311 16.8512 18.0899 19.447 20.9226 22.5166 24.2291 26.0601 28.0095 30.0774 32.2638 34.5686 36.9919 39.5336 42.1939 44.9725 47.8697 50.8853 54.0194 57.2719 60.6429 64.1324 67.7403 71.4667 75.3115 79.2749 83.3566 87.5569 91.8756 96.3128 100.868 105.543 110.335 115.246 120.276 125.424 130.69 136.075 141.578 147.2 152.94 158.799 164.776 170.872 177.086 183.419 189.87 196.439 203.127 209.934 216.859 223.902 231.064 238.344 245.743 253.26 260.896 268.65 
79.6666 75.6916 71.835 68.0969 64.4772 60.976 57.5933 54.3291 51.1833 48.156 45.2471 42.4567 39.7848 37.2313 34.7963 32.4797 30.2817 28.202 26.2409 24.3982 22.674 21.0682 19.5809 18.2121 16.9617 15.8298 14.8164 13.9214 13.1449 12.4868 11.9473 11.5261 11.2235 11.0393 10.9736 11.0263 11.1975 11.4872 11.8953 12.4219 13.0669 13.8304 14.7124 15.7129 16.8318 18.0692 19.425 20.8993 22.4921 24.2033 26.033 27.9812 30.0478 32.2329 34.5364 36.9584 39.4989 42.1578 44.9353 47.8311 50.8455 53.9783 57.2295 60.5992 64.0874 67.6941 71.4192 75.2628 79.2248 83.3053 87.5043 91.8218 96.2577 100.812 105.485 110.276 115.186 120.214 125.361 130.626 136.01 141.512 147.132 152.871 158.729 164.705 170.799 177.012 183.343 189.793 196.361 203.048 209.853 216.777 223.819 230.979 238.258 245.656 253.172 260.806 268.559 
79.7106 75.734 71.8759 68.1362 64.5151 61.0124 57.6281 54.3623 51.215 48.1861 45.2757 42.4838 39.8104 37.2554 34.8188 32.5007 30.3011 28.22 26.2573 24.4131 22.6873 21.08 19.5912 18.2209 16.969 15.8355 14.8206 13.924 13.146 12.4864 11.9453 11.5227 11.2185 11.0328 10.9655 11.0167 11.1864 11.4745 11.8811 12.4062 13.0497 13.8117 14.6921 15.691 16.8084 18.0443 19.3986 20.8714 22.4626 24.1723 26.0005 27.9471 30.0122 32.1957 34.4978 36.9182 39.4572 42.1146 44.8905 47.7848 50.7976 53.9289 57.1786 60.5468 64.0335 67.6386 71.3622 75.2042 79.1648 83.2437 87.4412 91.7571 96.1915 100.744 105.416 110.205 115.114 120.14 125.285 130.549 135.931 141.432 147.051 152.788 158.644 164.619 170.711 176.923 183.253 189.701 196.267 202.953 209.756 216.678 223.719 230.878 238.156 245.552 253.066 260.699 268.45 
79.7634 75.785 71.925 68.1836 64.5605 61.056 57.6699 54.4023 51.2531 48.2224 45.3102 42.5164 39.8411 37.2843 34.8459 32.526 30.3245 28.2416 26.277 24.431 22.7034 21.0943 19.6036 18.2314 16.9777 15.8424 14.8256 13.9273 13.1474 12.486 11.943 11.5185 11.2125 11.0249 10.9558 11.0052 11.173 11.4593 11.8641 12.3873 13.029 13.7892 14.6678 15.6649 16.7804 18.0144 19.3669 20.8378 22.4272 24.1351 25.9614 27.9062 29.9694 32.1512 34.4513 36.87 39.4071 42.0627 44.8367 47.7292 50.7402 53.8696 57.1175 60.4839 63.9687 67.572 71.2937 75.1339 79.0926 83.1698 87.3654 91.6794 96.112 100.663 105.332 110.12 115.027 120.052 125.195 130.457 135.837 141.336 146.953 152.688 158.543 164.515 170.606 176.816 183.144 189.59 196.155 202.838 209.64 216.56 223.599 230.756 238.032 245.426 252.939 260.57 268.319 
79.8268 75.8462 71.9841 68.2404 64.6152 61.1084 57.7201 54.4503 51.2989 48.266 45.3516 42.5556 39.8781 37.3191 34.8785 32.5564 30.3527 28.2675 26.3008 24.4525 22.7227 21.1114 19.6185 18.2441 16.9882 15.8507 14.8317 13.9311 13.149 12.4854 11.9403 11.5136 11.2053 11.0156 10.9443 10.9914 11.1571 11.4411 11.8437 12.3647 13.0042 13.7621 14.6386 15.6334 16.7468 17.9786 19.3288 20.7976 22.3848 24.0904 25.9145 27.8571 29.9182 32.0977 34.3957 36.8121 39.347 42.0004 44.7722 47.6625 50.6713 53.7985 57.0442 60.4083 63.8909 67.492 71.2116 75.0496 79.006 83.081 87.2744 91.5862 96.0166 100.565 105.233 110.018 114.923 119.945 125.086 130.346 135.724 141.22 146.835 152.569 158.421 164.391 170.48 176.687 183.013 189.457 196.02 202.701 209.501 216.419 223.455 230.61 237.884 245.276 252.786 260.415 268.162 
79.9031 75.9198 72.055 68.3087 64.6808 61.1714 57.7805 54.508 51.354 48.3184 45.4013 42.6027 39.9226 37.3609 34.9176 32.5929 30.3866 28.2987 26.3293 24.4784 22.746 21.132 19.6365 18.2594 17.0008 15.8607 14.839 13.9358 13.1511 12.4848 11.937 11.5077 11.1968 11.0044 10.9304 10.9749 11.1379 11.4194 11.8193 12.3376 12.9745 13.7298 14.6035 15.5957 16.7064 17.9356 19.2832 20.7493 22.3338 24.0368 25.8583 27.7982 29.8566 32.0335 34.3288 36.7426 39.2749 41.9256 44.6948 47.5824 50.5885 53.7131 56.9562 60.3177 63.7976 67.3961 71.1129 74.9483 78.9021 82.9744 87.1652 91.4744 95.9021 100.448 105.113 109.896 114.797 119.817 124.956 130.213 135.588 141.082 146.694 152.425 158.274 164.242 170.328 176.533 182.856 189.298 195.858 202.536 209.333 216.248 223.282 230.435 237.706 245.095 252.603 260.229 267.973 
79.9947 76.0082 72.1402 68.3907 64.7597 61.2471 57.853 54.5773 51.4201 48.3814 45.4611 42.6593 39.976 37.4111 34.9647 32.6367 30.4273 28.3362 26.3637 24.5096 22.774 21.1568 19.6581 18.2779 17.0161 15.8728 14.8479 13.9416 13.1536 12.4842 11.9332 11.5007 11.1866 10.991 10.9139 10.9552 11.115 11.3933 11.79 12.3052 12.9389 13.691 14.5616 15.5506 16.6581 17.8841 19.2285 20.6914 22.2728 23.9726 25.7909 27.7276 29.7829 31.9566 34.2487 36.6593 39.1884 41.8359 44.6019 47.4864 50.4893 53.6107 56.8506 60.2089 63.6857 67.2809 70.9947 74.8268 78.7775 82.8466 87.0342 91.3402 95.7647 100.308 104.969 109.749 114.647 119.664 124.799 130.053 135.425 140.916 146.525 152.253 158.099 164.063 170.146 176.348 182.668 189.106 195.663 202.338 209.132 216.044 223.075 230.224 237.492 244.878 252.383 260.006 267.747 
80.1046 76.1144 72.2426 68.4892 64.8544 61.338 57.94 54.6606 51.4996 48.457 45.5329 42.7273 40.0402 37.4715 35.0212 32.6895 30.4762 28.3813 26.405 24.5471 22.8076 21.1867 19.6841 18.3001 17.0345 15.8874 14.8587 13.9485 13.1568 12.4835 11.9287 11.4924 11.1745 10.9751 10.8942 10.9317 11.0877 11.3621 11.755 12.2664 12.8962 13.6445 14.5113 15.4965 16.6002 17.8224 19.163 20.6221 22.1996 23.8956 25.7101 27.6431 29.6945 31.8643 34.1527 36.5595 39.0847 41.7284 44.4906 47.3713 50.3704 53.488 56.724 60.0785 63.5515 67.1429 70.8528 74.6812 78.628 82.6933 86.8771 91.1793 95.6 100.139 104.797 109.573 114.467 119.48 124.612 129.862 135.23 140.717 146.322 152.046 157.888 163.849 169.928 176.126 182.442 188.877 195.43 202.101 208.891 215.8 222.826 229.972 237.236 244.618 252.119 259.738 267.475 
80.2367 76.2418 72.3655 68.6076 64.9681 61.4471 58.0446 54.7606 51.595 48.5479 45.6192 42.809 40.1173 37.544 35.0892 32.7529 30.535 28.4356 26.4547 24.5922 22.8482 21.2226 19.7155 18.3269 17.0567 15.905 14.8718 13.957 13.1607 12.4829 11.9235 11.4826 11.1601 10.9561 10.8706 10.9036 11.055 11.3248 11.7132 12.22 12.8452 13.589 14.4512 15.4318 16.5309 17.7485 19.0845 20.5391 22.112 23.8035 25.6134 27.5417 29.5886 31.7539 34.0376 36.4398 38.9605 41.5997 44.3573 47.2334 50.2279 53.3409 56.5724 59.9223 63.3907 66.9776 70.6829 74.5067 78.4489 82.5096 86.6888 90.9865 95.4026 99.9371 104.59 109.362 114.252 119.26 124.387 129.632 134.996 140.478 146.079 151.798 157.636 163.592 169.667 175.86 182.171 188.601 195.15 201.817 208.602 215.506 222.528 229.669 236.928 244.306 251.802 259.417 267.15 
